"Storage 193957 - RawData - F:\201701009\2017-2896\1.spc"
"²¨³¤(nm)","T%"
200.00,9.750
200.50,9.706
201.00,9.419
201.50,9.412
202.00,9.291
202.50,9.314
203.00,9.758
203.50,9.547
204.00,9.447
204.50,9.525
205.00,9.222
205.50,9.238
206.00,9.035
206.50,8.842
207.00,8.707
207.50,8.690
208.00,8.876
208.50,8.818
209.00,8.868
209.50,8.890
210.00,8.624
210.50,8.617
211.00,8.684
211.50,8.470
212.00,8.455
212.50,8.339
213.00,8.183
213.50,8.228
214.00,8.141
214.50,8.145
215.00,8.139
215.50,8.105
216.00,8.177
216.50,8.089
217.00,7.932
217.50,7.857
218.00,7.639
218.50,7.599
219.00,7.600
219.50,7.602
220.00,7.722
220.50,7.663
221.00,7.658
221.50,7.591
222.00,7.481
222.50,7.466
223.00,7.370
223.50,7.314
224.00,7.225
224.50,7.118
225.00,7.121
225.50,7.249
226.00,7.240
226.50,7.304
227.00,7.288
227.50,7.089
228.00,7.011
228.50,6.888
229.00,6.886
229.50,6.874
230.00,6.947
230.50,6.921
231.00,6.836
231.50,6.871
232.00,6.764
232.50,6.856
233.00,6.914
233.50,6.877
234.00,6.964
234.50,6.924
235.00,6.844
235.50,6.830
236.00,6.918
236.50,6.964
237.00,7.060
237.50,7.147
238.00,7.179
238.50,7.243
239.00,7.310
239.50,7.396
240.00,7.503
240.50,7.613
241.00,7.808
241.50,7.974
242.00,8.208
242.50,8.423
243.00,8.678
243.50,9.036
244.00,9.274
244.50,9.680
245.00,10.034
245.50,10.480
246.00,11.028
246.50,11.508
247.00,12.103
247.50,12.579
248.00,13.208
248.50,13.907
249.00,14.644
249.50,15.579
250.00,16.434
250.50,17.317
251.00,18.163
251.50,19.020
252.00,19.984
252.50,20.952
253.00,22.000
253.50,23.027
254.00,23.996
254.50,25.197
255.00,26.370
255.50,27.602
256.00,28.990
256.50,30.186
257.00,31.422
257.50,32.648
258.00,33.850
258.50,35.063
259.00,36.485
259.50,37.842
260.00,39.082
260.50,40.434
261.00,41.707
261.50,42.935
262.00,44.307
262.50,45.586
263.00,46.799
263.50,48.157
264.00,49.358
264.50,50.616
265.00,51.758
265.50,52.853
266.00,54.071
266.50,55.240
267.00,56.522
267.50,57.759
268.00,58.546
268.50,59.419
269.00,60.269
269.50,61.038
270.00,61.964
270.50,63.025
271.00,63.860
271.50,64.748
272.00,65.816
272.50,66.437
273.00,67.264
273.50,67.708
274.00,68.346
274.50,69.048
275.00,69.353
275.50,70.140
276.00,70.432
276.50,70.789
277.00,71.379
277.50,71.873
278.00,72.580
278.50,73.091
279.00,73.596
279.50,73.912
280.00,74.300
280.50,74.849
281.00,75.323
281.50,75.865
282.00,76.051
282.50,76.236
283.00,76.349
283.50,76.451
284.00,77.238
284.50,77.808
285.00,78.465
285.50,78.876
286.00,78.835
286.50,79.254
287.00,79.332
287.50,79.814
288.00,79.915
288.50,79.651
289.00,79.990
289.50,79.962
290.00,80.052
290.50,80.418
291.00,80.281
291.50,80.360
292.00,80.536
292.50,80.287
293.00,80.589
293.50,80.534
294.00,80.635
294.50,80.832
295.00,80.667
295.50,80.910
296.00,81.094
296.50,81.531
297.00,82.019
297.50,82.417
298.00,82.526
298.50,82.533
299.00,82.567
299.50,82.481
300.00,82.852
300.50,82.851
301.00,83.098
301.50,83.284
302.00,83.319
302.50,83.496
303.00,83.353
303.50,83.199
304.00,83.168
304.50,83.279
305.00,83.061
305.50,83.238
306.00,82.729
306.50,82.350
307.00,82.262
307.50,82.095
308.00,83.083
308.50,84.041
309.00,84.892
309.50,86.824
310.00,87.514
310.50,88.403
311.00,88.182
311.50,86.223
312.00,84.436
312.50,84.212
313.00,85.269
313.50,86.697
314.00,88.791
314.50,87.839
315.00,87.637
315.50,87.617
316.00,85.803
316.50,86.676
317.00,86.194
317.50,86.133
318.00,87.062
318.50,87.341
319.00,87.390
319.50,87.474
320.00,87.541
320.50,87.062
321.00,87.285
321.50,86.919
322.00,88.403
322.50,88.150
323.00,88.492
323.50,88.695
324.00,86.711
324.50,86.234
325.00,85.588
325.50,85.310
326.00,85.974
326.50,86.909
327.00,87.820
327.50,87.460
328.00,87.978
328.50,86.729
329.00,86.096
329.50,87.483
330.00,86.916
330.50,88.350
331.00,87.654
331.50,87.100
332.00,88.676
332.50,88.466
333.00,89.546
333.50,89.151
334.00,88.132
334.50,88.106
335.00,88.788
335.50,90.211
336.00,91.035
336.50,90.448
337.00,90.622
337.50,89.427
338.00,87.601
338.50,86.292
339.00,84.401
339.50,84.904
340.00,85.938
340.50,87.727
341.00,88.977
341.50,90.460
342.00,90.727
342.50,91.206
343.00,90.930
343.50,88.696
344.00,88.324
344.50,88.817
345.00,89.339
345.50,90.352
346.00,89.836
346.50,89.232
347.00,88.737
347.50,87.624
348.00,87.436
348.50,88.278
349.00,88.428
349.50,89.886
350.00,90.863
350.50,90.993
351.00,91.364
351.50,91.576
352.00,91.464
352.50,89.915
353.00,88.672
353.50,88.300
354.00,88.731
354.50,89.355
355.00,90.616
355.50,91.003
356.00,90.919
356.50,92.177
357.00,92.438
357.50,91.359
358.00,91.312
358.50,89.922
359.00,89.749
359.50,90.408
360.00,90.329
360.50,90.544
361.00,90.163
361.50,89.471
362.00,89.670
362.50,89.433
363.00,89.369
363.50,88.965
364.00,88.022
364.50,88.425
365.00,88.805
365.50,89.540
366.00,90.332
366.50,90.327
367.00,90.468
367.50,90.640
368.00,90.768
368.50,90.753
369.00,90.552
369.50,90.242
370.00,90.186
370.50,90.186
371.00,90.224
371.50,90.411
372.00,90.547
372.50,90.657
373.00,90.495
373.50,90.504
374.00,90.591
374.50,90.384
375.00,90.407
375.50,90.506
376.00,90.155
376.50,90.195
377.00,90.529
377.50,90.562
378.00,90.771
378.50,90.916
379.00,90.845
379.50,90.784
380.00,90.793
380.50,90.884
381.00,90.811
381.50,90.854
382.00,90.866
382.50,90.855
383.00,90.756
383.50,90.776
384.00,90.756
384.50,90.862
385.00,91.023
385.50,90.961
386.00,91.069
386.50,90.939
387.00,91.060
387.50,91.077
388.00,91.133
388.50,91.171
389.00,90.996
389.50,90.985
390.00,90.686
390.50,90.674
391.00,90.826
391.50,90.918
392.00,91.272
392.50,91.321
393.00,91.405
393.50,91.556
394.00,91.461
394.50,91.530
395.00,91.393
395.50,91.406
396.00,91.586
396.50,91.559
397.00,91.646
397.50,91.719
398.00,91.562
398.50,91.583
399.00,91.585
399.50,91.547
400.00,91.539
400.50,91.521
401.00,91.565
401.50,91.440
402.00,91.385
402.50,91.371
403.00,91.248
403.50,91.222
404.00,91.267
404.50,91.476
405.00,91.678
405.50,91.812
406.00,91.943
406.50,91.881
407.00,91.759
407.50,91.727
408.00,91.515
408.50,91.455
409.00,91.551
409.50,91.554
410.00,91.628
410.50,91.602
411.00,91.499
411.50,91.635
412.00,91.864
412.50,92.090
413.00,92.252
413.50,92.183
414.00,92.137
414.50,91.983
415.00,91.815
415.50,91.800
416.00,91.776
416.50,91.852
417.00,92.065
417.50,92.117
418.00,92.133
418.50,92.072
419.00,92.009
419.50,91.988
420.00,91.943
420.50,91.972
421.00,92.027
421.50,91.934
422.00,92.003
422.50,91.907
423.00,91.766
423.50,91.815
424.00,91.757
424.50,91.945
425.00,92.128
425.50,92.197
426.00,92.216
426.50,92.085
427.00,91.992
427.50,91.953
428.00,91.927
428.50,91.876
429.00,91.779
429.50,91.747
430.00,91.672
430.50,91.736
431.00,91.698
431.50,91.595
432.00,91.548
432.50,91.548
433.00,91.595
433.50,91.698
434.00,91.876
434.50,91.904
435.00,91.917
435.50,91.928
436.00,91.830
436.50,91.817
437.00,91.910
437.50,91.856
438.00,91.884
438.50,91.815
439.00,91.553
439.50,91.499
440.00,91.476
440.50,91.397
441.00,91.446
441.50,91.518
442.00,91.489
442.50,91.527
443.00,91.606
443.50,91.664
444.00,91.650
444.50,91.742
445.00,91.760
445.50,91.707
446.00,91.769
446.50,91.679
447.00,91.537
447.50,91.425
448.00,91.287
448.50,91.280
449.00,91.354
449.50,91.489
450.00,91.641
450.50,91.705
451.00,91.754
451.50,91.795
452.00,91.780
452.50,91.789
453.00,91.797
453.50,91.872
454.00,91.969
454.50,91.933
455.00,91.960
455.50,91.849
456.00,91.760
456.50,91.853
457.00,91.899
457.50,91.922
458.00,92.046
458.50,91.986
459.00,91.949
459.50,91.928
460.00,91.916
460.50,91.919
461.00,91.911
461.50,91.902
462.00,91.805
462.50,91.833
463.00,91.731
463.50,91.815
464.00,91.943
464.50,92.065
465.00,92.287
465.50,92.357
466.00,92.357
466.50,92.340
467.00,92.384
467.50,92.357
468.00,92.419
468.50,92.461
469.00,92.580
469.50,92.688
470.00,92.622
470.50,92.705
471.00,92.688
471.50,92.746
472.00,92.807
472.50,92.796
473.00,92.761
473.50,92.705
474.00,92.755
474.50,92.847
475.00,92.886
475.50,92.998
476.00,93.152
476.50,93.141
477.00,93.172
477.50,93.121
478.00,93.076
478.50,93.118
479.00,93.245
479.50,93.410
480.00,93.546
480.50,93.803
481.00,93.813
481.50,93.810
482.00,93.773
482.50,93.616
483.00,93.697
483.50,93.753
484.00,93.787
484.50,93.784
485.00,93.748
485.50,93.826
486.00,93.860
486.50,94.008
487.00,94.083
487.50,94.104
488.00,94.263
488.50,94.232
489.00,94.183
489.50,94.218
490.00,94.220
490.50,94.302
491.00,94.455
491.50,94.572
492.00,94.640
492.50,94.559
493.00,94.569
493.50,94.669
494.00,94.637
494.50,94.832
495.00,94.839
495.50,94.612
496.00,94.604
496.50,94.508
497.00,94.524
497.50,94.565
498.00,94.516
498.50,94.589
499.00,94.624
499.50,94.685
500.00,94.788
500.50,94.827
501.00,94.792
501.50,94.821
502.00,94.820
502.50,94.742
503.00,94.818
503.50,94.846
504.00,94.881
504.50,95.000
505.00,95.088
505.50,95.180
506.00,95.204
506.50,95.248
507.00,95.258
507.50,95.187
508.00,95.161
508.50,95.193
509.00,95.131
509.50,95.183
510.00,95.171
510.50,95.125
511.00,95.174
511.50,95.294
512.00,95.486
512.50,95.580
513.00,95.610
513.50,95.525
514.00,95.392
514.50,95.261
515.00,95.210
515.50,95.198
516.00,95.268
516.50,95.418
517.00,95.490
517.50,95.508
518.00,95.518
518.50,95.496
519.00,95.529
519.50,95.587
520.00,95.662
520.50,95.671
521.00,95.740
521.50,95.737
522.00,95.695
522.50,95.700
523.00,95.674
523.50,95.702
524.00,95.694
524.50,95.657
525.00,95.612
525.50,95.450
526.00,95.451
526.50,95.421
527.00,95.268
527.50,95.395
528.00,95.389
528.50,95.512
529.00,95.842
529.50,95.880
530.00,95.905
530.50,95.747
531.00,95.511
531.50,95.439
532.00,95.319
532.50,95.415
533.00,95.638
533.50,95.711
534.00,95.786
534.50,95.857
535.00,95.677
535.50,95.630
536.00,95.607
536.50,95.508
537.00,95.517
537.50,95.482
538.00,95.486
538.50,95.509
539.00,95.520
539.50,95.587
540.00,95.654
540.50,95.622
541.00,95.674
541.50,95.648
542.00,95.575
542.50,95.595
543.00,95.511
543.50,95.439
544.00,95.488
544.50,95.522
545.00,95.688
545.50,95.825
546.00,95.795
546.50,95.703
547.00,95.514
547.50,95.422
548.00,95.345
548.50,95.389
549.00,95.427
549.50,95.477
550.00,95.566
550.50,95.450
551.00,95.325
551.50,95.224
552.00,95.163
552.50,95.253
553.00,95.343
553.50,95.293
554.00,95.338
554.50,95.184
555.00,95.125
555.50,95.120
556.00,95.006
556.50,95.065
557.00,95.050
557.50,95.084
558.00,95.169
558.50,95.186
559.00,95.148
559.50,95.134
560.00,95.004
560.50,95.087
561.00,95.078
561.50,95.038
562.00,95.084
562.50,94.994
563.00,94.995
563.50,94.977
564.00,94.931
564.50,94.853
565.00,94.791
565.50,94.846
566.00,94.847
566.50,94.926
567.00,94.949
567.50,94.885
568.00,94.910
568.50,94.824
569.00,94.812
569.50,94.769
570.00,94.664
570.50,94.643
571.00,94.681
571.50,94.678
572.00,94.786
572.50,94.800
573.00,94.745
573.50,94.691
574.00,94.606
574.50,94.568
575.00,94.533
575.50,94.545
576.00,94.545
576.50,94.576
577.00,94.637
577.50,94.624
578.00,94.653
578.50,94.637
579.00,94.585
579.50,94.601
580.00,94.472
580.50,94.370
581.00,94.234
581.50,94.051
582.00,94.055
582.50,94.083
583.00,94.156
583.50,94.304
584.00,94.331
584.50,94.263
585.00,94.244
585.50,94.179
586.00,94.099
586.50,94.122
587.00,93.999
587.50,93.951
588.00,93.900
588.50,93.819
589.00,93.858
589.50,93.852
590.00,93.898
590.50,93.930
591.00,93.849
591.50,93.791
592.00,93.764
592.50,93.820
593.00,93.909
593.50,93.921
594.00,93.935
594.50,93.826
595.00,93.808
595.50,93.843
596.00,93.776
596.50,93.840
597.00,93.802
597.50,93.723
598.00,93.700
598.50,93.666
599.00,93.713
599.50,93.784
600.00,93.829
600.50,93.860
601.00,93.907
601.50,93.941
602.00,93.939
602.50,93.816
603.00,93.692
603.50,93.616
604.00,93.648
604.50,93.678
605.00,93.607
605.50,93.523
606.00,93.484
606.50,93.462
607.00,93.469
607.50,93.500
608.00,93.346
608.50,93.317
609.00,93.335
609.50,93.239
610.00,93.341
610.50,93.269
611.00,93.251
611.50,93.304
612.00,93.327
612.50,93.398
613.00,93.445
613.50,93.416
614.00,93.408
614.50,93.515
615.00,93.416
615.50,93.604
616.00,93.539
616.50,93.451
617.00,93.440
617.50,93.221
618.00,93.185
618.50,93.164
619.00,93.253
619.50,93.358
620.00,93.405
620.50,93.452
621.00,93.491
621.50,93.530
622.00,93.567
622.50,93.547
623.00,93.591
623.50,93.475
624.00,93.428
624.50,93.367
625.00,93.303
625.50,93.307
626.00,93.231
626.50,93.089
627.00,92.920
627.50,92.871
628.00,92.876
628.50,92.876
629.00,92.889
629.50,92.851
630.00,92.773
630.50,92.754
631.00,92.683
631.50,92.735
632.00,92.792
632.50,92.926
633.00,92.995
633.50,92.998
634.00,92.987
634.50,92.859
635.00,92.899
635.50,92.908
636.00,92.958
636.50,93.053
637.00,93.094
637.50,93.118
638.00,93.135
638.50,93.297
639.00,93.307
639.50,93.222
640.00,93.231
640.50,93.022
641.00,92.940
641.50,92.923
642.00,92.909
642.50,92.986
643.00,93.073
643.50,93.069
644.00,92.995
644.50,92.938
645.00,92.876
645.50,92.848
646.00,92.845
646.50,92.746
647.00,92.770
647.50,92.860
648.00,92.912
648.50,92.854
649.00,92.824
649.50,92.862
650.00,92.848
650.50,93.011
651.00,93.076
651.50,93.048
652.00,93.100
652.50,93.204
653.00,93.204
653.50,93.173
654.00,93.074
654.50,92.953
655.00,92.809
655.50,92.711
656.00,92.674
656.50,92.685
657.00,92.818
657.50,93.011
658.00,93.080
658.50,93.057
659.00,92.970
659.50,92.998
660.00,93.076
660.50,93.073
661.00,93.141
661.50,92.911
662.00,92.799
662.50,92.815
663.00,92.847
663.50,92.940
664.00,93.037
664.50,93.161
665.00,93.188
665.50,93.123
666.00,93.141
666.50,92.986
667.00,92.796
667.50,92.868
668.00,92.801
668.50,92.856
669.00,92.918
669.50,92.966
670.00,92.972
670.50,92.940
671.00,92.874
671.50,92.769
672.00,92.688
672.50,92.767
673.00,92.854
673.50,92.847
674.00,92.924
674.50,92.851
675.00,92.921
675.50,93.073
676.00,93.141
676.50,93.201
677.00,93.256
677.50,93.265
678.00,93.143
678.50,93.224
679.00,93.153
679.50,93.097
680.00,93.030
680.50,92.853
681.00,92.857
681.50,92.969
682.00,93.129
682.50,93.279
683.00,93.292
683.50,93.356
684.00,93.411
684.50,93.289
685.00,93.292
685.50,93.178
686.00,93.068
686.50,93.108
687.00,93.005
687.50,92.937
688.00,92.902
688.50,92.900
689.00,92.863
689.50,92.915
690.00,92.903
690.50,93.053
691.00,93.196
691.50,93.164
692.00,93.147
692.50,93.069
693.00,93.063
693.50,92.987
694.00,92.976
694.50,93.027
695.00,93.123
695.50,93.137
696.00,93.164
696.50,93.066
697.00,92.877
697.50,92.845
698.00,92.902
698.50,92.984
699.00,93.105
699.50,93.130
700.00,93.159
700.50,93.008
701.00,93.008
701.50,93.010
702.00,93.002
702.50,93.027
703.00,93.066
703.50,93.022
704.00,93.111
704.50,93.341
705.00,93.257
705.50,93.524
706.00,93.602
706.50,93.480
707.00,93.513
707.50,93.494
708.00,93.330
708.50,93.491
709.00,93.370
709.50,93.204
710.00,93.167
710.50,92.978
711.00,93.123
711.50,93.251
712.00,93.382
712.50,93.546
713.00,93.582
713.50,93.393
714.00,93.349
714.50,93.124
715.00,93.076
715.50,93.098
716.00,93.082
716.50,93.185
717.00,93.115
717.50,93.239
718.00,93.240
718.50,93.330
719.00,93.501
719.50,93.582
720.00,93.561
720.50,93.599
721.00,93.468
721.50,93.359
722.00,93.457
722.50,93.306
723.00,93.385
723.50,93.353
724.00,93.442
724.50,93.585
725.00,93.649
725.50,93.814
726.00,93.712
726.50,93.584
727.00,93.546
727.50,93.404
728.00,93.520
728.50,93.666
729.00,93.825
729.50,93.820
730.00,93.770
730.50,93.752
731.00,93.526
731.50,93.790
732.00,93.968
732.50,94.157
733.00,94.289
733.50,94.168
734.00,93.919
734.50,93.759
735.00,93.855
735.50,94.051
736.00,94.312
736.50,94.139
737.00,94.191
737.50,93.825
738.00,93.698
738.50,93.877
739.00,93.930
739.50,94.226
740.00,94.286
740.50,94.339
741.00,94.376
741.50,94.405
742.00,94.247
742.50,94.333
743.00,94.258
743.50,94.272
744.00,94.299
744.50,94.302
745.00,94.389
745.50,94.028
746.00,93.889
746.50,93.707
747.00,93.336
747.50,93.597
748.00,93.898
748.50,93.942
749.00,93.900
749.50,93.805
750.00,93.839
750.50,94.054
751.00,94.357
751.50,94.403
752.00,94.489
752.50,94.270
753.00,94.318
753.50,94.672
754.00,94.566
754.50,94.829
755.00,94.868
755.50,94.583
756.00,94.429
756.50,94.193
757.00,93.784
757.50,93.822
758.00,94.170
758.50,94.272
759.00,94.630
759.50,94.797
760.00,94.792
760.50,94.855
761.00,95.032
761.50,94.960
762.00,94.893
762.50,94.978
763.00,94.788
763.50,94.919
764.00,94.855
764.50,94.608
765.00,94.661
765.50,94.560
766.00,94.551
766.50,94.635
767.00,94.643
767.50,94.637
768.00,94.562
768.50,94.691
769.00,94.553
769.50,94.421
770.00,94.577
770.50,94.455
771.00,94.623
771.50,94.731
772.00,94.780
772.50,94.875
773.00,94.888
773.50,94.884
774.00,94.789
774.50,94.847
775.00,95.255
775.50,95.746
776.00,95.847
776.50,95.976
777.00,95.544
777.50,95.181
778.00,94.815
778.50,94.608
779.00,94.589
779.50,94.632
780.00,94.865
780.50,94.820
781.00,95.038
781.50,94.856
782.00,95.071
782.50,95.068
783.00,94.966
783.50,95.305
784.00,95.389
784.50,95.219
785.00,95.363
785.50,95.163
786.00,94.908
786.50,95.152
787.00,95.145
787.50,95.300
788.00,95.753
788.50,95.998
789.00,96.051
789.50,95.900
790.00,95.689
790.50,95.558
791.00,95.395
791.50,95.572
792.00,95.482
792.50,95.575
793.00,95.529
793.50,95.428
794.00,95.216
794.50,95.151
795.00,95.201
795.50,95.258
796.00,95.351
796.50,94.960
797.00,94.688
797.50,94.394
798.00,94.405
798.50,94.807
799.00,94.818
799.50,94.899
800.00,94.881
